File: doc/files/data_raw_demo/20240326_DCP2_JULE_Ni_W_130224_BCV_EIS_i_004_02_PEIS_C01.mpt
EC-Lab ASCII FILE
Nb header lines : 70

Potentio Electrochemical Impedance Spectroscopy

Run on channel : 1 (SN 14323)
User :
Electrode connection : CE to ground
Potential control : Ewe
Ewe ctrl range : min = -10,00 V, max = 10,00 V
Ewe,I filtering : 50 kHz
Safety Limits :
	Do not start on E overload
Channel : Floating
Acquisition started on : 03/26/2024 15:31:47.051
Technique started on : 03/26/2024 15:32:40.508
Loaded Setting File :  C:\Users\Operator\Documents\DCP2_rawdata\CV\2024-03-26\20240326_DCP2_JULE_Ni_W_130224_BCV_EIS_i_000.mps
Saved on :
	File : 20240326_DCP2_JULE_Ni_W_130224_BCV_EIS_i_004_02_PEIS_C01.mpr
	Directory : C:\Users\Operator\Documents\DCP2_rawdata\CV\2024-03-26\
	Host : 134.60.37.140
Device : VSP-300 (SN 0936)
Address : USB
EC-Lab for windows v11.41 (software)
Internet server v11.40 (firmware)
Command interpretor v11.41 (firmware)
Electrode material :
Initial state :
Electrolyte :
Comments :
Cable : standard
Electrode surface area : 0,001 cm²
Characteristic mass : 0,001 g
Equivalent Weight : 0,000 g/eq.
Density : 0,000 g/cm3
Volume (V) : 0,001 cm³
Record Ece
Text export
   Mode : Standard
   Time format : Elapsed
Cycle Definition : Charge/Discharge alternance
Mode                Single sine
E (V)               1,4000
vs.                 Ref
tE (h:m:s)          0:00:0,0000
record              0
dI                  0,000
unit dI             mA
dt (s)              0,000
fi                  100,000
unit fi             kHz
ff                  1,000
unit ff             Hz
Nd                  20
Points              per decade
spacing             Logarithmic
Va (mV)             50,0
pw                  0,10
Na                  2
corr                0
E range min (V)     -10,000
E range max (V)     10,000
I Range             Auto
Bandwidth           8
nc cycles           0
goto Ns'            0
nr cycles           0
inc. cycle          0

freq/Hz	Re(Z)/Ohm	-Im(Z)/Ohm	|Z|/Ohm	Phase(Z)/deg	time/s	<Ewe>/V	<I>/mA	Cs/µF	Cp/µF	cycle number	I Range	|Ewe|/V	|I|/A	Ns	(Q-Qo)/mA.h	<Ece>/V	|Ece|/V	Phase(Zce)/deg	|Zce|/Ohm	Re(Zce)/Ohm	-Im(Zce)/Ohm	Phase(Zwe-ce)/deg	|Zwe-ce|/Ohm	Re(Zwe-ce)/Ohm	-Im(Zwe-ce)/Ohm	Re(Y)/Ohm-1	Im(Y)/Ohm-1	|Y|/Ohm-1	Phase(Y)/deg	dq/mA.h
1,0000371E+005	1,2854245E+002	6,1945400E+000	1,2869162E+002	-2,7589848E+000	5,345694333902793E+001	1,3994939E+000	-1,0659600E-001	2,5691822E-001	5,9526798E-004	1,000000000000000E+000	39	4,9480472E-002	3,8448867E-004	0	-4,379762967023999E-005	1,0438001E+000	5,2511718E-002	-4,6901984E+000	1,3657547E+002	1,3611813E+002	1,1167504E+001	-3,7532926E+000	2,6522946E+002	2,6466058E+002	1,7362045E+001	7,7615064E-003	3,7403184E-004	7,7705137E-003	2,7589848E+000	-4,379762967023999E-005
5,6237012E+004	1,2852382E+002	3,3431523E+000	1,2856729E+002	-1,4900377E+000	5,534196724189678E+001	1,3994846E+000	-1,8391671E-002	8,4652883E-001	5,7239138E-004	1,000000000000000E+000	39	5,0681014E-002	3,9419835E-004	0	-6,444231364960757E-005	1,0317553E+000	5,3915195E-002	-2,6145649E+000	1,3677174E+002	1,3662936E+002	6,2391071E+000	-2,0696871E+000	2,6532629E+002	2,6515320E+002	9,5822592E+000	7,7753980E-003	2,0225310E-004	7,7780280E-003	1,4900377E+000	-1,506190819701358E-006
3,1621143E+004	1,2842268E+002	1,7063267E+000	1,2843402E+002	-7,6123285E-001	5,722696511808317E+001	1,3995051E+000	-7,5899819E-003	2,9497173E+000	5,2064849E-004	1,000000000000000E+000	39	5,0631586E-002	3,9422253E-004	0	-6,898058046674124E-005	1,0357550E+000	5,3894650E-002	-1,4289515E+000	1,3671124E+002	1,3666873E+002	3,4092126E+000	-1,1055146E+000	2,6514078E+002	2,6509143E+002	5,1155396E+000	7,7854116E-003	1,0344322E-004	7,7860989E-003	7,6123285E-001	3,053547938664642E-008
1,7786891E+004	1,2821219E+002	9,7985274E-001	1,2821593E+002	-4,3787050E-001	5,911194096761756E+001	1,3994631E+000	-4,1723689E-003	9,1318607E+000	5,3333119E-004	1,000000000000000E+000	39	5,0529048E-002	3,9409337E-004	0	-6,975604518672077E-005	0,0000000E+000	5,3842541E-002	-7,7435464E-001	1,3662383E+002	1,3661134E+002	1,8464199E+000	-6,1145377E-001	2,6483862E+002	2,6482355E+002	2,8262727E+000	7,7991155E-003	5,9604201E-005	7,7993432E-003	4,3787050E-001	6,833239497467682E-008
1,0002226E+004	1,2810748E+002	6,8015337E-001	1,2810928E+002	-3,0419418E-001	6,063096306641819E+001	1,3994935E+000	-3,0120341E-003	2,3394653E+001	6,5943069E-004	1,000000000000000E+000	39	5,3061131E-002	4,1418648E-004	0	-7,054288448331256E-005	0,0000000E+000	5,6595854E-002	-4,6394259E-001	1,3664342E+002	1,3663893E+002	1,1064341E+000	-3,8664311E-001	2,6475244E+002	2,6474640E+002	1,7865875E+000	7,8057256E-003	4,1442469E-005	7,8058355E-003	3,0419418E-001	-4,970569222253481E-007
5,6227744E+003	1,2817278E+002	7,4544448E-001	1,2817494E+002	-3,3322477E-001	6,214993687189417E+001	1,3995351E+000	-2,2435749E-003	3,7971188E+001	1,2843356E-003	1,000000000000000E+000	39	5,4763481E-002	4,2725573E-004	0	-7,186031266030235E-005	0,0000000E+000	5,8363371E-002	-2,7179277E-001	1,3660056E+002	1,3659901E+002	6,4798671E-001	-3,0153131E-001	2,6477545E+002	2,6477179E+002	1,3934312E+000	7,8017050E-003	4,5374207E-005	7,8018368E-003	3,3322477E-001	-1,977950168980021E-008
3,1630769E+003	1,2827202E+002	8,8434577E-001	1,2827507E+002	-3,9500800E-001	6,379603807014792E+001	1,3995472E+000	-1,7275398E-003	5,6896854E+001	2,7042569E-003	1,000000000000000E+000	39	5,4705568E-002	4,2647077E-004	0	-7,299367775537798E-005	0,0000000E+000	5,8313053E-002	-1,5497538E-001	1,3673399E+002	1,3673349E+002	3,6984184E-001	-2,7116087E-001	2,6500845E+002	2,6500549E+002	1,2541876E+000	7,7955616E-003	5,3744934E-005	7,7957469E-003	3,9500800E-001	-9,901050215880810E-008
1,7782897E+003	1,2841806E+002	1,2332150E+000	1,2842398E+002	-5,5020171E-001	6,618651599698933E+001	1,3995534E+000	-1,2144879E-003	7,2573631E+001	6,6921269E-003	1,000000000000000E+000	39	5,1983327E-002	4,0477898E-004	0	-7,399856350398881E-005	0,0000000E+000	5,5333167E-002	-5,0673302E-002	1,3669971E+002	1,3669965E+002	1,2089939E-001	-2,9264122E-001	2,6512115E+002	2,6511771E+002	1,3541144E+000	7,7863485E-003	7,4773292E-005	7,7867075E-003	5,5020171E-001	-4,732577605316490E-007
9,9968164E+002	1,2877684E+002	2,0610204E+000	1,2879333E+002	-9,1691703E-001	6,841531156952260E+001	1,3995574E+000	-9,8555302E-004	7,7246025E+001	1,9781258E-002	1,000000000000000E+000	39	5,2693985E-002	4,0913597E-004	0	-7,461281560740867E-005	0,0000000E+000	5,5891033E-002	2,5721803E-002	1,3660748E+002	1,3660747E+002	-6,1327219E-002	-4,3172038E-001	2,6539185E+002	2,6538431E+002	1,9996932E+000	7,7633830E-003	1,2424974E-004	7,7643772E-003	9,1691703E-001	1,138234770446005E-007
5,6233929E+002	1,2961571E+002	3,1038013E+000	1,2965286E+002	-1,3717530E+000	7,063942796850461E+001	1,3995575E+000	-8,1515638E-004	9,1185928E+001	5,2257832E-002	1,000000000000000E+000	39	5,2910250E-002	4,0809164E-004	0	-7,482620108978072E-005	0,0000000E+000	5,5537160E-002	7,2320685E-002	1,3608992E+002	1,3608981E+002	-1,7177729E-001	-6,3222545E-001	2,6572168E+002	2,6570551E+002	2,9320240E+000	7,7106929E-003	1,8464166E-004	7,7129034E-003	1,3717530E+000	2,730312183557565E-007
3,1631589E+002	1,3120749E+002	4,1541958E+000	1,3127324E+002	-1,8134513E+000	7,286542223423021E+001	1,3995503E+000	-6,3879584E-004	1,2111897E+002	1,2129243E-001	1,000000000000000E+000	39	5,2980725E-002	4,0359120E-004	0	-7,548471814728368E-005	0,0000000E+000	5,4496024E-002	-2,4898814E-001	1,3502779E+002	1,3502650E+002	5,8678341E-001	-1,0201905E+000	2,6627621E+002	2,6623401E+002	4,7409792E+000	7,6138838E-003	2,4106522E-004	7,6176990E-003	1,8134513E+000	-3,530866109778855E-008
1,7778128E+002	1,3314130E+002	4,5796690E+000	1,3322003E+002	-1,9700297E+000	7,509577530011302E+001	1,3995495E+000	-5,2432925E-004	1,9547897E+002	2,3100913E-001	1,000000000000000E+000	39	5,2987996E-002	3,9774796E-004	0	-7,679400187026880E-005	0,0000000E+000	5,3362627E-002	-1,2926707E+000	1,3416191E+002	1,3412776E+002	3,0266185E+000	-1,6301572E+000	2,6737726E+002	2,6726904E+002	7,6062875E+000	7,5019416E-003	2,5804475E-004	7,5063785E-003	1,9700297E+000	-6,355970473208132E-007
9,9968163E+001	1,3462691E+002	4,7993231E+000	1,3471243E+002	-2,0416760E+000	7,731337207215256E+001	1,3995643E+000	-4,0725234E-004	3,3172519E+002	4,2103973E-001	1,000000000000000E+000	39	5,2991901E-002	3,9337054E-004	0	-7,688514074839380E-005	0,0000000E+000	5,2844834E-002	-3,0864685E+000	1,3433856E+002	1,3414369E+002	7,2331896E+000	-2,5633464E+000	2,6903979E+002	2,6877060E+002	1,2032513E+001	7,4185072E-003	2,6446281E-004	7,4232197E-003	2,0416760E+000	2,598479853736096E-007
5,6241825E+001	1,3564931E+002	5,6680593E+000	1,3576767E+002	-2,3926926E+000	7,954689881822560E+001	1,3995394E+000	-1,8279173E-004	4,9925952E+002	8,7016654E-001	1,000000000000000E+000	39	5,2998118E-002	3,9035891E-004	0	-7,790877693256416E-005	0,0000000E+000	5,3238939E-002	-5,7313128E+000	1,3638458E+002	1,3570282E+002	1,3619848E+001	-4,0657878E+000	2,7203674E+002	2,7135211E+002	1,9287907E+001	7,3591024E-003	3,0749757E-004	7,3655238E-003	2,3926926E+000	-3,118701409904340E-007
3,1629578E+001	1,3653909E+002	7,8044567E+000	1,3676196E+002	-3,2714176E+000	8,175096164288698E+001	1,3995590E+000	-2,6407465E-004	6,4473914E+002	2,0996106E+000	1,000000000000000E+000	39	5,2981690E-002	3,8740077E-004	0	-7,863529449683361E-005	0,0000000E+000	5,4532021E-002	-9,0811901E+000	1,4076384E+002	1,3899947E+002	2,2217304E+001	-6,2182269E+000	2,7716928E+002	2,7553857E+002	3,0021761E+001	7,3000593E-003	4,1726508E-004	7,3119747E-003	3,2714176E+000	-6,726092202281620E-007
1,7775894E+001	1,3763248E+002	1,1932504E+001	1,3814877E+002	-4,9550571E+000	8,401435415045125E+001	1,3995473E+000	6,7209592E-005	7,5033826E+002	5,5979133E+000	1,000000000000000E+000	39	5,2984074E-002	3,8352911E-004	0	-7,763548409510340E-005	0,0000000E+000	5,6670383E-002	-1,3569319E+001	1,4776031E+002	1,4363585E+002	3,4667763E+001	-9,4072561E+000	2,8510251E+002	2,8126831E+002	4,6600266E+001	7,2115208E-003	6,2522665E-004	7,2385729E-003	4,9550571E+000	-3,382174897981124E-007
9,9968166E+000	1,3936247E+002	1,8930496E+001	1,4064232E+002	-7,7355070E+000	8,653633317688946E+001	1,3995569E+000	-6,8459143E-005	8,4100085E+002	1,5236610E+001	1,000000000000000E+000	40	5,3002208E-002	3,7685820E-004	0	-7,822857300910659E-005	0,0000000E+000	6,0131993E-002	-1,9771318E+001	1,5956133E+002	1,5015523E+002	5,3974312E+001	-1,4134059E+001	2,9855588E+002	2,8951770E+002	7,2904808E+001	7,0455321E-003	9,5703971E-004	7,1102353E-003	7,7355070E+000	-2,964310506239909E-006
5,6245475E+000	1,4229176E+002	2,9964430E+001	1,4541257E+002	-1,1891846E+001	8,866806535817159E+001	1,3995535E+000	-1,7922636E-004	9,4433606E+002	4,0099106E+001	1,000000000000000E+000	40	5,3005707E-002	3,6451942E-004	0	-7,477717403763059E-005	0,0000000E+000	6,5484166E-002	-2,7609512E+001	1,7964520E+002	1,5918840E+002	8,3255341E+001	-2,0583485E+001	3,2203882E+002	3,0148016E+002	1,1321977E+002	6,7293928E-003	1,4171053E-003	6,8769846E-003	1,1891846E+001	1,118668799468035E-006
3,1629577E+000	1,4674680E+002	4,7196972E+001	1,5414986E+002	-1,7828922E+001	9,146662599773845E+001	1,3995628E+000	-6,7312474E-004	1,0661360E+003	9,9943520E+001	1,000000000000000E+000	40	5,2985445E-002	3,4372686E-004	0	-7,484524683884067E-005	0,0000000E+000	7,4134894E-002	-3,6984810E+001	2,1567966E+002	1,7228384E+002	1,2975359E+002	-2,9014971E+001	3,6481784E+002	3,1903064E+002	1,7695056E+002	6,1756461E-003	1,9862223E-003	6,4871940E-003	1,7828922E+001	-1,100922837388578E-006
1,7775893E+000	1,5365807E+002	7,2253822E+001	1,6979816E+002	-2,5184071E+001	9,634230921597919E+001	1,3995434E+000	-8,9457317E-004	1,2391614E+003	2,2437970E+002	1,000000000000000E+000	40	5,3002398E-002	3,1214944E-004	0	-7,242758647370890E-005	0,0000000E+000	8,6241744E-002	-4,5524994E+001	2,7628351E+002	1,9356369E+002	1,9714380E+002	-3,7806679E+001	4,3947470E+002	3,4722174E+002	2,6939761E+002	5,3295358E-003	2,5060796E-003	5,8893454E-003	2,5184071E+001	4,623943355131708E-006
1,0000616E+000	1,6426878E+002	1,1185204E+002	1,9873376E+002	-3,4251289E+001	1,049173380766006E+002	1,3995422E+000	-9,2147128E-004	1,4228184E+003	4,5070660E+002	1,000000000000000E+000	40	5,2996811E-002	2,6667240E-004	0	-8,934339905414284E-005	0,0000000E+000	1,0160697E-001	-5,2922478E+001	3,8101791E+002	2,2971381E+002	3,0398392E+002	-4,6545780E+001	5,7283667E+002	3,9398260E+002	4,1583594E+002	4,1592182E-003	2,8320479E-003	5,0318576E-003	3,4251289E+001	2,654484566990502E-006