File: doc/files/data_raw_demo/20240326_DCP2_JULE_Ni_W_130224_BCV_EIS_i_004_01_PEIS_C01.mpt
EC-Lab ASCII FILE
Nb header lines : 70

Potentio Electrochemical Impedance Spectroscopy

Run on channel : 1 (SN 14323)
User :
Electrode connection : CE to ground
Potential control : Ewe
Ewe ctrl range : min = -10,00 V, max = 10,00 V
Ewe,I filtering : 50 kHz
Safety Limits :
	Do not start on E overload
Channel : Floating
Acquisition started on : 03/26/2024 15:31:47.051
Technique started on : 03/26/2024 15:31:48.344
Loaded Setting File :  C:\Users\Operator\Documents\DCP2_rawdata\CV\2024-03-26\20240326_DCP2_JULE_Ni_W_130224_BCV_EIS_i_000.mps
Saved on :
	File : 20240326_DCP2_JULE_Ni_W_130224_BCV_EIS_i_004_01_PEIS_C01.mpr
	Directory : C:\Users\Operator\Documents\DCP2_rawdata\CV\2024-03-26\
	Host : 134.60.37.140
Device : VSP-300 (SN 0936)
Address : USB
EC-Lab for windows v11.41 (software)
Internet server v11.40 (firmware)
Command interpretor v11.41 (firmware)
Electrode material :
Initial state :
Electrolyte :
Comments :
Cable : standard
Electrode surface area : 0,001 cm²
Characteristic mass : 0,001 g
Equivalent Weight : 0,000 g/eq.
Density : 0,000 g/cm3
Volume (V) : 0,001 cm³
Record Ece
Text export
   Mode : Standard
   Time format : Elapsed
Cycle Definition : Charge/Discharge alternance
Mode                Single sine
E (V)               1,5000
vs.                 Ref
tE (h:m:s)          0:00:0,0000
record              0
dI                  0,000
unit dI             mA
dt (s)              0,000
fi                  100,000
unit fi             kHz
ff                  1,000
unit ff             Hz
Nd                  20
Points              per decade
spacing             Logarithmic
Va (mV)             50,0
pw                  0,10
Na                  2
corr                0
E range min (V)     -10,000
E range max (V)     10,000
I Range             Auto
Bandwidth           8
nc cycles           0
goto Ns'            0
nr cycles           0
inc. cycle          0

freq/Hz	Re(Z)/Ohm	-Im(Z)/Ohm	|Z|/Ohm	Phase(Z)/deg	time/s	<Ewe>/V	<I>/mA	Cs/µF	Cp/µF	cycle number	I Range	|Ewe|/V	|I|/A	Ns	(Q-Qo)/mA.h	<Ece>/V	|Ece|/V	Phase(Zce)/deg	|Zce|/Ohm	Re(Zce)/Ohm	-Im(Zce)/Ohm	Phase(Zwe-ce)/deg	|Zwe-ce|/Ohm	Re(Zwe-ce)/Ohm	-Im(Zwe-ce)/Ohm	Re(Y)/Ohm-1	Im(Y)/Ohm-1	|Y|/Ohm-1	Phase(Y)/deg	dq/mA.h
1,0000371E+005	1,2771152E+002	6,1239581E+000	1,2785827E+002	-2,7453151E+000	1,292525661381660E+000	1,4994906E+000	3,7831161E-002	2,5987935E-001	5,9618161E-004	1,000000000000000E+000	39	4,9533181E-002	3,8740694E-004	0	1,568984265144293E-005	9,4632798E-001	5,2926905E-002	-4,6956530E+000	1,3661838E+002	1,3615984E+002	1,1183976E+001	-3,7527871E+000	2,6443839E+002	2,6387137E+002	1,7307934E+001	7,8121843E-003	3,7460585E-004	7,8211604E-003	2,7453151E+000	1,568984265144293E-005
5,6237012E+004	1,2786796E+002	3,3213859E+000	1,2791109E+002	-1,4879303E+000	3,177533537585987E+000	1,4994891E+000	3,3209592E-002	8,5207641E-001	5,7451433E-004	1,000000000000000E+000	39	5,0693903E-002	3,9632141E-004	0	3,370161686057772E-005	0,0000000E+000	5,4186113E-002	-2,6133406E+000	1,3672266E+002	1,3658046E+002	6,2339492E+000	-2,0693724E+000	2,6462100E+002	2,6444843E+002	9,5553350E+000	7,8152949E-003	2,0300323E-004	7,8179305E-003	1,4879303E+000	2,684031084238899E-006
3,1621143E+004	1,2777127E+002	1,6945534E+000	1,2778251E+002	-7,5983483E-001	5,062520800420316E+000	1,4994668E+000	3,2506384E-002	2,9702110E+000	5,2234204E-004	1,000000000000000E+000	39	5,0655387E-002	3,9641879E-004	0	5,062352471087554E-005	0,0000000E+000	5,4213986E-002	-1,4315734E+000	1,3675937E+002	1,3671669E+002	3,4166689E+000	-1,1071014E+000	2,6453735E+002	2,6448798E+002	5,1112223E+000	7,8251092E-003	1,0377970E-004	7,8257974E-003	7,5983483E-001	3,512496967442631E-006
1,7786891E+004	1,2757942E+002	9,1043055E-001	1,2758267E+002	-4,0886644E-001	6,947549903270556E+000	1,4994966E+000	3,2243516E-002	9,8281841E+000	5,0047634E-004	1,000000000000000E+000	39	5,0520275E-002	3,9598069E-004	0	6,851754633730161E-005	0,0000000E+000	5,4075055E-002	-7,8627443E-001	1,3655983E+002	1,3654697E+002	1,8739624E+000	-6,0398370E-001	2,6414108E+002	2,6412640E+002	2,7843928E+000	7,8378553E-003	5,5932396E-005	7,8380546E-003	4,0886644E-001	4,316731338893678E-006
1,0002226E+004	1,2756107E+002	7,0711756E-001	1,2756303E+002	-3,1760815E-001	8,466523175447946E+000	1,4994773E+000	3,2309141E-002	2,2502558E+001	6,9145742E-004	1,000000000000000E+000	39	5,3134143E-002	4,1653245E-004	0	8,040349800024554E-005	0,0000000E+000	5,6928087E-002	-4,7355944E-001	1,3667143E+002	1,3666676E+002	1,1295999E+000	-3,9827168E-001	2,6423422E+002	2,6422784E+002	1,8367175E+000	7,8391414E-003	4,3455217E-005	7,8392616E-003	3,1760815E-001	1,939543422716368E-006
5,6227744E+003	1,2763499E+002	6,9872946E-001	1,2763690E+002	-3,1365889E-001	9,985569300915813E+000	1,4995311E+000	3,2191318E-002	4,0509830E+001	1,2140205E-003	1,000000000000000E+000	39	5,4753762E-002	4,2898065E-004	0	9,439008575073523E-005	0,0000000E+000	5,8656540E-002	-2,9327676E-001	1,3673470E+002	1,3673291E+002	6,9989336E-001	-3,0311713E-001	2,6437158E+002	2,6436789E+002	1,3986228E+000	7,8346077E-003	4,2890053E-005	7,8347251E-003	3,1365889E-001	2,553683388929946E-006
3,1630769E+003	1,2766562E+002	8,9463484E-001	1,2766875E+002	-4,0150169E-001	1,163167268583493E+001	1,4995540E+000	3,2069396E-002	5,6242493E+001	2,7617663E-003	1,000000000000000E+000	39	5,4737661E-002	4,2874750E-004	0	1,089869021757303E-004	0,0000000E+000	5,8592159E-002	-1,4451879E-001	1,3665889E+002	1,3665846E+002	3,4469828E-001	-2,6864004E-001	2,6432700E+002	2,6432410E+002	1,2393332E+000	7,8325784E-003	5,4887896E-005	7,8327702E-003	4,0150169E-001	3,613073469977180E-006
1,7782897E+003	1,2792648E+002	1,2636547E+000	1,2793272E+002	-5,6594795E-001	1,402208042601706E+001	1,4995530E+000	3,1888936E-002	7,0825432E+001	6,9100750E-003	1,000000000000000E+000	39	5,2025374E-002	4,0666197E-004	0	1,309877449171949E-004	0,0000000E+000	5,5594314E-002	-2,2825416E-002	1,3670891E+002	1,3670889E+002	5,4461911E-002	-2,8538096E-001	2,6463867E+002	2,6463538E+002	1,3181167E+000	7,8162272E-003	7,7208504E-005	7,8166081E-003	5,6594795E-001	3,866547112315948E-006
9,9968164E+002	1,2826462E+002	2,0005808E+000	1,2828021E+002	-8,9358658E-001	1,625098762521520E+001	1,4995418E+000	3,1813614E-002	7,9579704E+001	1,9355088E-002	1,000000000000000E+000	39	5,2722335E-002	4,1099353E-004	0	1,513728819647036E-004	0,0000000E+000	5,6129135E-002	8,3950989E-002	1,3656940E+002	1,3656924E+002	-2,0010430E-001	-3,8952011E-001	2,6484000E+002	2,6483386E+002	1,8004766E+000	7,7944864E-003	1,2157288E-004	7,7954344E-003	8,9358658E-001	4,300867244109720E-006
5,6233929E+002	1,2908327E+002	3,0864902E+000	1,2912016E+002	-1,3697295E+000	1,847505733085563E+001	1,4995394E+000	3,1636134E-002	9,1697357E+001	5,2396040E-002	1,000000000000000E+000	39	5,2947100E-002	4,1006066E-004	0	1,705215601407164E-004	0,0000000E+000	5,5786166E-002	1,6235091E-001	1,3604369E+002	1,3604314E+002	-3,8548714E-001	-5,8368659E-001	2,6514017E+002	2,6512640E+002	2,7010031E+000	7,7425111E-003	1,8512997E-004	7,7447239E-003	1,3697295E+000	3,905737080954469E-006
3,1631589E+002	1,3068117E+002	4,2044015E+000	1,3074878E+002	-1,8427401E+000	2,070100508991163E+001	1,4995590E+000	3,1546276E-002	1,1967267E+002	1,2374511E-001	1,000000000000000E+000	39	5,3010415E-002	4,0543717E-004	0	1,900914584990541E-004	0,0000000E+000	5,4711398E-002	-1,0597073E-001	1,3494421E+002	1,3494398E+002	2,4958432E-001	-9,6064198E-001	2,6566251E+002	2,6562515E+002	4,4539857E+000	7,6442994E-003	2,4593985E-004	7,6482547E-003	1,8427401E+000	4,220150921440422E-006
1,7778128E+002	1,3268092E+002	4,7625976E+000	1,3276637E+002	-2,0557563E+000	2,293233399585006E+001	1,4995592E+000	3,1519804E-002	1,8797073E+002	2,4188103E-001	1,000000000000000E+000	39	5,3019945E-002	3,9934771E-004	0	2,085710772497898E-004	0,0000000E+000	5,3477731E-002	-9,3056101E-001	1,3391270E+002	1,3389505E+002	2,1748278E+000	-1,4907401E+000	2,6666623E+002	2,6657599E+002	6,9374256E+000	7,5271800E-003	2,7018905E-004	7,5320276E-003	2,0557563E+000	3,641430391674585E-006
9,9968163E+001	1,3426555E+002	5,0842314E+000	1,3436177E+002	-2,1685822E+000	2,514997084790957E+001	1,4995852E+000	3,1426217E-002	3,1313611E+002	4,4836563E-001	1,000000000000000E+000	39	5,3031191E-002	3,9468959E-004	0	2,281600011742711E-004	0,0000000E+000	5,2857198E-002	-2,5560722E+000	1,3392093E+002	1,3378769E+002	5,9724822E+000	-2,3620088E+000	2,6828116E+002	2,6805322E+002	1,1056713E+001	7,4372627E-003	2,8162671E-004	7,4425931E-003	2,1685822E+000	4,022258810082967E-006
5,6241825E+001	1,3525473E+002	6,0413208E+000	1,3538959E+002	-2,5574872E+000	2,738341602063156E+001	1,4995482E+000	3,1375136E-002	4,6841290E+002	9,3265730E-001	1,000000000000000E+000	39	5,3027630E-002	3,9166695E-004	0	2,479301987459483E-004	0,0000000E+000	5,3074941E-002	-4,7964201E+000	1,3551039E+002	1,3503584E+002	1,1330780E+001	-3,6774528E+000	2,7084830E+002	2,7029059E+002	1,7372101E+001	7,3787356E-003	3,2958039E-004	7,3860926E-003	2,5574872E+000	3,504278870304276E-006
3,1629578E+001	1,3621129E+002	8,3621883E+000	1,3646773E+002	-3,5130534E+000	2,958657484527794E+001	1,4995334E+000	3,1312868E-002	6,0173712E+002	2,2593670E+000	1,000000000000000E+000	39	5,3019509E-002	3,8851314E-004	0	2,672671896556001E-004	0,0000000E+000	5,4082230E-002	-7,7262578E+000	1,3920309E+002	1,3793936E+002	1,8714510E+001	-5,6405687E+000	2,7548453E+002	2,7415063E+002	2,7076698E+001	7,3139700E-003	4,4901413E-004	7,3277396E-003	3,5130534E+000	4,340848948281061E-006
1,7775894E+001	1,3752315E+002	1,2896151E+001	1,3812650E+002	-5,3572106E+000	3,184993879278773E+001	1,4995607E+000	3,1624574E-002	6,9427026E+002	6,0519423E+000	1,000000000000000E+000	39	5,3024046E-002	3,8388034E-004	0	2,880208744533576E-004	0,0000000E+000	5,5831455E-002	-1,1495362E+001	1,4543973E+002	1,4252232E+002	2,8984482E+001	-8,5055141E+000	2,8315976E+002	2,8004547E+002	4,1880630E+001	7,2081173E-003	6,7593687E-004	7,2397408E-003	5,3572106E+000	5,417860745733660E-006
9,9968166E+000	1,3970621E+002	2,0579021E+001	1,4121375E+002	-8,3795309E+000	3,437192323259660E+001	1,4995528E+000	3,2193579E-002	7,7363068E+002	1,6429684E+001	1,000000000000000E+000	40	5,3049501E-002	3,7566811E-004	0	3,080932486130219E-004	0,0000000E+000	5,8425590E-002	-1,6390032E+001	1,5552449E+002	1,4920445E+002	4,3885052E+001	-1,2578257E+001	2,9601517E+002	2,8891064E+002	6,4464073E+001	7,0058652E-003	1,0319789E-003	7,0814635E-003	8,3795309E+000	4,054702217710059E-006
5,6245475E+000	1,4336177E+002	3,3161556E+001	1,4714716E+002	-1,3024237E+001	3,650564256061625E+001	1,4995390E+000	3,3100341E-002	8,5329193E+002	4,3337486E+001	1,000000000000000E+000	40	5,3046077E-002	3,6049681E-004	0	3,253361560562593E-004	0,0000000E+000	6,2015928E-002	-2,2645182E+001	1,7202907E+002	1,5876682E+002	6,6235184E+001	-1,8210596E+001	3,1805881E+002	3,0212860E+002	9,9396744E+001	6,6210921E-003	1,5315498E-003	6,7959181E-003	1,3024237E+001	-3,529568945426741E-008
3,1629577E+000	1,5086397E+002	5,2993179E+001	1,5990063E+002	-1,9354572E+001	3,930422312018345E+001	1,4995512E+000	3,6252879E-002	9,4952582E+002	1,0429089E+002	1,000000000000000E+000	40	5,3041499E-002	3,3171536E-004	0	3,504422608992350E-004	0,0000000E+000	6,6619799E-002	-2,9449686E+001	2,0083423E+002	1,7488399E+002	9,8741966E+001	-2,4976355E+001	3,5935397E+002	3,2574796E+002	1,5173514E+002	5,9004501E-003	2,0726195E-003	6,2538837E-003	1,9354572E+001	3,183679683764539E-006
1,7775893E+000	1,6510683E+002	8,3415924E+001	1,8498238E+002	-2,6803999E+001	4,417979193844076E+001	1,4995558E+000	4,1503292E-002	1,0733459E+003	2,1826140E+002	1,000000000000000E+000	40	5,3038575E-002	2,8672232E-004	0	4,070839482309287E-004	0,0000000E+000	7,0965618E-002	-3,5612827E+001	2,4750642E+002	2,0121539E+002	1,4412424E+002	-3,1846384E+001	4,3123831E+002	3,6632220E+002	2,2754016E+002	4,8250780E-003	2,4377450E-003	5,4059206E-003	2,6803999E+001	8,255517601138201E-006
1,0000616E+000	1,9508549E+002	1,2518606E+002	2,3179710E+002	-3,2688225E+001	5,275385642566835E+001	1,4995563E+000	4,7732502E-002	1,2712688E+003	3,7079453E+002	1,000000000000000E+000	40	5,3036671E-002	2,2880644E-004	0	5,255817193079678E-004	0,0000000E+000	7,1860529E-002	-3,8432274E+001	3,1406689E+002	2,4602223E+002	1,9522058E+002	-3,5993465E+001	5,4519397E+002	4,4110773E+002	3,2040665E+002	3,6308554E-003	2,3299141E-003	4,3141176E-003	3,2688225E+001	3,339784684370606E-005